---Stopping/Range Input Data (Number-format: Period = Decimal Point) 
---Output File Name                                                  
"sr.out"
---Ion(Z), Ion Mass(u)                                               
17  34.969
---Target Data: (Solid=0,Gas=1), Density(g/cm3), Compound Corr.      
0    0.07    0
---Number of Target Elements                                         
1
---Target Elements: (Z), Target name, Stoich, Target Mass(u)         
 1                  "Hydrogen" 100              1.008
---Output Stopping Units (1-8)                                       
7
---Ion Energy : E-Min(keV), E-Max(keV)                               
0 0
   24904.99    
   24906.30    
   24907.61    
   24908.92    
   24910.23    
   24911.54    
   24912.85    
   24914.17    
   24915.48    
   24916.79    
   24918.10    
   24919.41    
   24920.72    
   24922.03    
   24923.34    
   24924.65    
   24925.96    
   24927.27    
   24928.58    
   24929.89    
   24931.21    
   24932.52    
   24933.83    
   24935.14    
   24936.45    
   24937.76    
   24939.07    
   24940.38    
   24941.69    
   24943.00    
   24944.31    
   24945.62    
   24946.93    
   24948.24    
   24949.55    
   24950.87    
   24952.18    
   24953.49    
   24954.80    
   24956.11    
   24957.42    
   24958.73    
   24960.04    
   24961.35    
   24962.66    
   24963.97    
   24965.28    
   24966.59    
   24967.90    
   24969.21    
   24970.53    
   24971.84    
   24973.15    
   24974.46    
   24975.77    
   24977.08    
   24978.39    
   24979.70    
   24981.01    
   24982.32    
   24983.63    
   24984.94    
   24986.25    
   24987.57    
   24988.88    
   24990.19    
   24991.50    
   24992.81    
   24994.12    
   24995.43    
   24996.74    
   24998.05    
   24999.36    
   25000.67    
   25001.98    
   25003.29    
   25004.61    
   25005.92    
   25007.23    
   25008.54    
   25009.85    
   25011.16    
   25012.47    
   25013.78    
   25015.09    
   25016.40    
   25017.71    
   25019.02    
   25020.33    
   25021.64    
   25022.96    
   25024.27    
   25025.58    
   25026.89    
   25028.20    
   25029.51    
   25030.82    
   25032.13    
   25033.44    
   25034.75    
   25036.06    
   25037.37    
   25038.68    
   25039.99    
   25041.30    
   25042.62    
   25043.93    
   25045.24    
   25046.55    
   25047.86    
   25049.17    
   25050.48    
   25051.79    
   25053.10    
   25054.41    
   25055.72    
   25057.03    
   25058.34    
   25059.65    
   25060.96    
   25062.28    
   25063.59    
   25064.90    
   25066.21    
   25067.52    
   25068.83    
   25070.14    
   25071.45    
   25072.76    
   25074.07    
   25075.38    
   25076.70    
   25078.01    
   25079.32    
   25080.63    
   25081.94    
   25083.25    
   25084.56    
   25085.87    
   25087.18    
   25088.49    
   25089.80    
   25091.11    
   25092.42    
   25093.73    
   25095.04    
   25096.36    
   25097.67    
   25098.98    
   25100.29    
   25101.60    
   25102.91    
   25104.22    
   25105.53    
   25106.84    
   25108.15    
   25109.46    
   25110.77    
   25112.08    
   25113.39    
   25114.71    
   25116.02    
   25117.33    
   25118.64    
   25119.95    
   25121.26    
   25122.57    
   25123.88    
   25125.19    
   25126.50    
   25127.81    
   25129.12    
   25130.43    
   25131.74    
   25133.05    
   25134.37    
   25135.68    
   25136.99    
   25138.30    
   25139.61    
   25140.92    
   25142.23    
   25143.54    
   25144.85    
   25146.16    
   25147.47    
   25148.78    
   25150.09    
   25151.41    
   25152.72    
   25154.03    
   25155.34    
   25156.65    
   25157.96    
   25159.27    
   25160.58    
   25161.89    
   25163.20    
   25164.51    
   25165.82    
   25167.13    
   25168.45    
   25169.76    
   25171.07    
   25172.38    
   25173.69    
   25175.00    
   25176.31    
   25177.62    
   25178.93    
   25180.24    
   25181.55    
   25182.86    
   25184.17    
   25185.48    
   25186.79    
   25188.11    
   25189.42    
   25190.73    
   25192.04    
   25193.35    
   25194.66    
   25195.97    
   25197.28    
   25198.59    
   25199.90    
   25201.21    
   25202.52    
   25203.83    
   25205.14    
   25206.46    
   25207.77    
   25209.08    
   25210.39    
   25211.70    
   25213.01    
   25214.32    
   25215.63    
   25216.94    
   25218.25    
   25219.56    
   25220.87    
   25222.18    
   25223.49    
   25224.81    
   25226.12    
   25227.43    
   25228.74    
   25230.05    
   25231.36    
   25232.67    
   25233.98    
   25235.29    
   25236.60    
   25237.91    
   25239.22    
   25240.54    
   25241.85    
   25243.16    
   25244.47    
   25245.78    
   25247.09    
   25248.40    
   25249.71    
   25251.02    
   25252.33    
   25253.64    
   25254.95    
   25256.26    
   25257.57    
   25258.88    
   25260.20    
   25261.51    
   25262.82    
   25264.13    
   25265.44    
   25266.75    
   25268.06    
   25269.37    
   25270.68    
   25271.99    
   25273.30    
   25274.61    
   25275.92    
   25277.23    
   25278.54    
   25279.86    
   25281.17    
   25282.48    
   25283.79    
   25285.10    
   25286.41    
   25287.72    
   25289.03    
   25290.34    
   25291.65    
   25292.96    
   25294.27    
   25295.58    
   25296.89    
   25298.21    
   25299.52    
   25300.83    
   25302.14    
   25303.45    
   25304.76    
   25306.07    
   25307.38    
   25308.69    
   25310.00    
   25311.31    
   25312.62    
   25313.94    
   25315.25    
   25316.56    
   25317.87    
   25319.18    
   25320.49    
   25321.80    
   25323.11    
   25324.42    
   25325.73    
   25327.04    
   25328.35    
   25329.66    
   25330.97    
   25332.29    
   25333.60    
   25334.91    
   25336.22    
   25337.53    
   25338.84    
   25340.15    
   25341.46    
   25342.77    
   25344.08    
   25345.39    
   25346.70    
   25348.01    
   25349.32    
   25350.63    
   25351.95    
   25353.26    
   25354.57    
   25355.88    
   25357.19    
   25358.50    
   25359.81    
   25361.12    
   25362.43    
   25363.74    
   25365.05    
   25366.36    
   25367.67    
   25368.98    
   25370.29    
   25371.61    
   25372.92    
   25374.23    
   25375.54    
   25376.85    
   25378.16    
   25379.47    
   25380.78    
   25382.09    
   25383.40    
   25384.71    
   25386.02    
   25387.34    
   25388.65    
   25389.96    
   25391.27    
   25392.58    
   25393.89    
   25395.20    
   25396.51    
   25397.82    
   25399.13    
   25400.44    
   25401.75    
   25403.06    
   25404.38    
   25405.69    
   25407.00    
   25408.31    
   25409.62    
   25410.93    
   25412.24    
   25413.55    
   25414.86    
   25416.17    
   25417.48    
   25418.79    
   25420.10    
   25421.41    
   25422.72    
   25424.04    
   25425.35    
   25426.66    
   25427.97    
   25429.28    
   25430.59    
   25431.90    
   25433.21    
   25434.52    
   25435.83    
   25437.14    
   25438.45    
   25439.76    
   25441.07    
   25442.38    
   25443.70    
   25445.01    
   25446.32    
   25447.63    
   25448.94    
   25450.25    
   25451.56    
   25452.87    
   25454.18    
   25455.49    
   25456.80    
   25458.11    
   25459.42    
   25460.74    
   25462.05    
   25463.36    
   25464.67    
   25465.98    
   25467.29    
   25468.60    
   25469.91    
   25471.22    
   25472.53    
   25473.84    
   25475.15    
   25476.46    
   25477.78    
   25479.09    
   25480.40    
   25481.71    
   25483.02    
   25484.33    
   25485.64    
   25486.95    
   25488.26    
   25489.57    
   25490.88    
   25492.19    
   25493.50    
   25494.81    
   25496.12    
   25497.44    
   25498.75    
   25500.06    
   25501.37    
   25502.68    
   25503.99    
   25505.30    
   25506.61    
   25507.92    
   25509.23    
   25510.54    
   25511.85    
   25513.16    
   25514.47    
   25515.79    
   25517.10    
   25518.41    
   25519.72    
   25521.03    
   25522.34    
   25523.65    
   25524.96    
   25526.27    
   25527.58    
   25528.89    
   25530.20    
   25531.51    
   25532.82    
   25534.13    
   25535.45    
   25536.76    
   25538.07    
   25539.38    
   25540.69    
   25542.00    
   25543.31    
   25544.62    
   25545.93    
   25547.24    
   25548.55    
   25549.87    
   25551.18    
   25552.49    
   25553.80    
   25555.11    
   25556.42    
   25557.73    
   25559.04    
   25560.35    
   25561.66    
   25562.97    
   25564.28    
   25565.59    
   25566.90    
   25568.21    
   25569.53    
   25570.84    
   25572.15    
   25573.46    
   25574.77    
   25576.08    
   25577.39    
   25578.70    
   25580.01    
   25581.32    
   25582.63    
   25583.94    
   25585.25    
   25586.56    
   25587.88    
   25589.19    
   25590.50    
   25591.81    
   25593.12    
   25594.43    
   25595.74    
   25597.05    
   25598.36    
   25599.67    
   25600.98    
   25602.29    
   25603.60    
   25604.91    
   25606.22    
   25607.54    
   25608.85    
   25610.16    
   25611.47    
   25612.78    
   25614.09    
   25615.40    
   25616.71    
   25618.02    
   25619.33    
   25620.64    
   25621.95    
   25623.26    
   25624.58    
   25625.89    
   25627.20    
   25628.51    
   25629.82    
   25631.13    
   25632.44    
   25633.75    
   25635.06    
   25636.37    
   25637.68    
   25638.99    
   25640.30    
   25641.62    
   25642.93    
   25644.24    
   25645.55    
   25646.86    
   25648.17    
   25649.48    
   25650.79    
   25652.10    
   25653.41    
   25654.72    
   25656.03    
   25657.34    
   25658.65    
   25659.96    
   25661.28    
   25662.59    
   25663.90    
   25665.21    
   25666.52    
   25667.83    
   25669.14    
   25670.45    
   25671.76    
   25673.07    
   25674.38    
   25675.69    
   25677.00    
   25678.31    
   25679.62    
   25680.94    
   25682.25    
   25683.56    
   25684.87    
   25686.18    
   25687.49    
   25688.80    
   25690.11    
   25691.42    
   25692.73    
   25694.04    
   25695.35    
   25696.66    
   25697.98    
   25699.29    
   25700.60    
   25701.91    
   25703.22    
   25704.53    
   25705.84    
   25707.15    
   25708.46    
   25709.77    
   25711.08    
   25712.39    
   25713.71    
   25715.02    
   25716.33    
   25717.64    
   25718.95    
   25720.26    
   25721.57    
   25722.88    
   25724.19    
   25725.50    
   25726.81    
   25728.12    
   25729.43    
   25730.74    
   25732.05    
   25733.37    
   25734.68    
   25735.99    
   25737.30    
   25738.61    
   25739.92    
   25741.23    
   25742.54    
   25743.85    
   25745.16    
   25746.47    
   25747.78    
   25749.09    
   25750.40    
   25751.71    
   25753.03    
   25754.34    
   25755.65    
   25756.96    
   25758.27    
   25759.58    
   25760.89    
   25762.20    
   25763.51    
   25764.82    
   25766.13    
   25767.44    
   25768.75    
   25770.06    
   25771.38    
   25772.69    
   25774.00    
   25775.31    
   25776.62    
   25777.93    
   25779.24    
   25780.55    
   25781.86    
   25783.17    
   25784.48    
   25785.79    
   25787.11    
   25788.42    
   25789.73    
   25791.04    
   25792.35    
   25793.66    
   25794.97    
   25796.28    
   25797.59    
   25798.90    
   25800.21    
   25801.52    
   25802.83    
   25804.14    
   25805.46    
   25806.77    
   25808.08    
   25809.39    
   25810.70    
   25812.01    
   25813.32    
   25814.63    
   25815.94    
   25817.25    
   25818.56    
   25819.87    
   25821.18    
   25822.49    
   25823.80    
   25825.12    
   25826.43    
   25827.74    
   25829.05    
   25830.36    
   25831.67    
   25832.98    
   25834.29    
   25835.60    
   25836.91    
   25838.22    
   25839.53    
   25840.84    
   25842.15    
   25843.46    
   25844.78    
   25846.09    
   25847.40    
   25848.71    
   25850.02    
   25851.33    
   25852.64    
   25853.95    
   25855.26    
   25856.57    
   25857.88    
   25859.19    
   25860.51    
   25861.82    
   25863.13    
   25864.44    
   25865.75    
   25867.06    
   25868.37    
   25869.68    
   25870.99    
   25872.30    
   25873.61    
   25874.92    
   25876.23    
   25877.54    
   25878.86    
   25880.17    
   25881.48    
   25882.79    
   25884.10    
   25885.41    
   25886.72    
   25888.03    
   25889.34    
   25890.65    
   25891.96    
   25893.27    
   25894.58    
   25895.89    
   25897.21    
   25898.52    
   25899.83    
   25901.14    
   25902.45    
   25903.76    
   25905.07    
   25906.38    
   25907.69    
   25909.00    
   25910.31    
   25911.62    
   25912.93    
   25914.24    
   25915.55    
   25916.87    
   25918.18    
   25919.49    
   25920.80    
   25922.11    
   25923.42    
   25924.73    
   25926.04    
   25927.35    
   25928.66    
   25929.97    
   25931.28    
   25932.59    
   25933.90    
   25935.22    
   25936.53    
   25937.84    
   25939.15    
   25940.46    
   25941.77    
   25943.08    
   25944.39    
   25945.70    
   25947.01    
   25948.32    
   25949.63    
   25950.95    
   25952.26    
   25953.57    
   25954.88    
   25956.19    
   25957.50    
   25958.81    
   25960.12    
   25961.43    
   25962.74    
   25964.05    
   25965.36    
   25966.67    
   25967.98    
   25969.29    
   25970.61    
   25971.92    
   25973.23    
   25974.54    
   25975.85    
   25977.16    
   25978.47    
   25979.78    
   25981.09    
   25982.40    
   25983.71    
   25985.02    
   25986.33    
   25987.64    
   25988.96    
   25990.27    
   25991.58    
   25992.89    
   25994.20    
   25995.51    
   25996.82    
   25998.13    
   25999.44    
   26000.75    
   26002.06    
   26003.37    
   26004.68    
   26005.99    
   26007.30    
   26008.62    
   26009.93    
   26011.24    
   26012.55    
   26013.86    
   26015.17    
   26016.48    
   26017.79    
   26019.10    
   26020.41    
   26021.72    
   26023.04    
   26024.35    
   26025.66    
   26026.97    
   26028.28    
   26029.59    
   26030.90    
   26032.21    
   26033.52    
   26034.83    
   26036.14    
   26037.45    
   26038.76    
   26040.07    
   26041.38    
   26042.70    
   26044.01    
   26045.32    
   26046.63    
   26047.94    
   26049.25    
   26050.56    
   26051.87    
   26053.18    
   26054.49    
   26055.80    
   26057.11    
   26058.42    
   26059.73    
   26061.04    
   26062.36    
   26063.67    
   26064.98    
   26066.29    
   26067.60    
   26068.91    
   26070.22    
   26071.53    
   26072.84    
   26074.15    
   26075.46    
   26076.77    
   26078.08    
   26079.39    
   26080.71    
   26082.02    
   26083.33    
   26084.64    
   26085.95    
   26087.26    
   26088.57    
   26089.88    
   26091.19    
   26092.50    
   26093.81    
   26095.12    
   26096.43    
   26097.75    
   26099.06    
   26100.37    
   26101.68    
   26102.99    
   26104.30    
   26105.61    
   26106.92    
   26108.23    
   26109.54    
   26110.85    
   26112.16    
   26113.47    
   26114.79    
   26116.10    
   26117.41    
   26118.72    
   26120.03    
   26121.34    
   26122.65    
   26123.96    
   26125.27    
   26126.58    
   26127.89    
   26129.20    
   26130.51    
   26131.82    
   26133.13    
   26134.45    
   26135.76    
   26137.07    
   26138.38    
   26139.69    
   26141.00    
   26142.31    
   26143.62    
   26144.93    
   26146.24    
   26147.55    
   26148.86    
   26150.17    
   26151.48    
   26152.79    
   26154.11    
   26155.42    
   26156.73    
   26158.04    
   26159.35    
   26160.66    
   26161.97    
   26163.28    
   26164.59    
   26165.90    
   26167.21    
   26168.52    
   26169.83    
   26171.15    
   26172.46    
   26173.77    
   26175.08    
   26176.39    
   26177.70    
   26179.01    
   26180.32    
   26181.63    
   26182.94    
   26184.25    
   26185.56    
   26186.88    
   26188.19    
   26189.50    
   26190.81    
   26192.12    
   26193.43    
   26194.74    
   26196.05    
   26197.36    
   26198.67    
   26199.98    
   26201.29    
   26202.60    
   26203.91    
   26205.22    
   26206.54    
   26207.85    
   26209.16    
   26210.47    
   26211.78    
   26213.09    
   26214.40    
0
